#  Last 340Kyrs Temperature data from dome Fuji site, Antarctica from Uemura et al., 2018 (https://www.ncei.noaa.gov/access/paleo-search/study/23371). T is interpolated to CO2 dataset (co2-from-FujiDome.Backup) file. 
 290    # N° of data
# Time [yr]       Temperature [°C]
745.000000 	  0.076000
943.000000 	  0.475600
1153.000000 	  0.355300
1503.000000 	  0.213850
2412.000000 	  -0.651600
2989.000000 	  -0.088750
3580.000000 	  0.194000
4177.000000 	  -0.183950
4516.000000 	  -0.297600
4889.000000 	  -0.235400
5247.000000 	  0.032300
5629.000000 	  -0.084200
6117.000000 	  -0.320000
6582.000000 	  -0.188700
7264.000000 	  0.104600
7918.000000 	  -0.308300
8783.000000 	  0.011100
9810.000000 	  0.890500
10496.000000 	  1.259800
11097.000000 	  0.903600
11315.000000 	  0.877000
11528.000000 	  0.809200
11760.000000 	  0.476000
12059.000000 	  -0.249550
12392.000000 	  -1.042000
12712.000000 	  -1.808200
13160.000000 	  -1.977000
13420.000000 	  -2.174000
13648.000000 	  -2.103400
13872.000000 	  -2.105800
14102.000000 	  -2.118700
14330.000000 	  -1.976500
14537.000000 	  -1.931450
14748.000000 	  -2.178000
14983.000000 	  -2.594700
15232.000000 	  -2.739600
15437.000000 	  -2.760000
15922.000000 	  -3.116200
16392.000000 	  -4.498800
16901.000000 	  -5.980550
17465.000000 	  -6.486750
18051.000000 	  -7.286500
19098.000000 	  -7.918300
20182.000000 	  -7.193600
20942.000000 	  -7.499000
21672.000000 	  -7.207600
22425.000000 	  -7.590000
22956.000000 	  -7.210800
23601.000000 	  -6.956550
24335.000000 	  -7.786250
25112.000000 	  -7.476400
25996.000000 	  -6.728400
26819.000000 	  -6.710250
27974.000000 	  -6.966400
28926.000000 	  -6.186500
29903.000000 	  -6.923300
30311.000000 	  -7.136700
31108.000000 	  -7.060000
31930.000000 	  -6.610500
32267.000000 	  -6.728450
33043.000000 	  -5.948500
33799.000000 	  -6.369000
34630.000000 	  -5.802000
35376.000000 	  -6.056600
36143.000000 	  -5.548300
36883.000000 	  -4.393200
37574.000000 	  -5.390300
38335.000000 	  -4.963500
39964.000000 	  -6.511200
40878.000000 	  -5.633300
42044.000000 	  -5.996400
43205.000000 	  -5.872250
43915.000000 	  -5.788000
44695.000000 	  -5.283000
45290.000000 	  -4.856500
47211.000000 	  -6.082050
47898.000000 	  -5.873500
48286.000000 	  -5.293300
49553.000000 	  -5.479650
50447.000000 	  -5.427600
52067.000000 	  -3.643500
52654.000000 	  -4.057300
53316.000000 	  -4.993200
54044.000000 	  -5.038400
54849.000000 	  -5.641350
55768.000000 	  -4.926400
56384.000000 	  -4.576200
57658.000000 	  -3.742100
58284.000000 	  -4.201600
58839.000000 	  -4.273550
59449.000000 	  -4.931950
60064.000000 	  -5.703200
60767.000000 	  -5.850350
61570.000000 	  -6.746000
62280.000000 	  -7.296000
63158.000000 	  -5.618200
64000.000000 	  -6.420000
64725.000000 	  -6.453750
65539.000000 	  -7.367750
66672.000000 	  -6.922400
67450.000000 	  -6.952500
68343.000000 	  -6.775600
69451.000000 	  -6.084100
70656.000000 	  -4.762600
71690.000000 	  -4.729000
72589.000000 	  -5.333350
73788.000000 	  -3.882800
74542.000000 	  -3.990600
75251.000000 	  -3.854700
76459.000000 	  -4.278200
77814.000000 	  -4.656700
79005.000000 	  -3.957500
80050.000000 	  -3.397500
81177.000000 	  -2.270050
82057.000000 	  -2.470850
83199.000000 	  -2.246650
84000.000000 	  -1.480000
84695.000000 	  -1.469250
85631.000000 	  -1.979300
86590.000000 	  -2.985500
87508.000000 	  -3.445200
88650.000000 	  -3.995000
89873.000000 	  -4.755950
90960.000000 	  -4.993000
92275.000000 	  -4.170000
93583.000000 	  -3.694550
94677.000000 	  -3.535050
95802.000000 	  -4.106600
96742.000000 	  -3.280100
97133.000000 	  -3.110800
98033.000000 	  -2.753400
98940.000000 	  -3.014000
99407.000000 	  -2.877200
100234.000000 	  -2.036800
101073.000000 	  -2.183500
101931.000000 	  -2.404950
102776.000000 	  -2.331200
103647.000000 	  -1.625900
104544.000000 	  -2.644600
105720.000000 	  -3.468000
106899.000000 	  -1.910950
108034.000000 	  -2.720200
109041.000000 	  -1.948850
110094.000000 	  -3.816200
110732.000000 	  -4.203600
111334.000000 	  -4.925900
112567.000000 	  -4.649550
114790.000000 	  -3.377500
116199.000000 	  -3.730800
117543.000000 	  -3.218600
118840.000000 	  -2.599000
119444.000000 	  -2.009200
120671.000000 	  -0.549000
121799.000000 	  -0.140300
122843.000000 	  0.239950
123870.000000 	  1.229500
124753.000000 	  1.248200
125195.000000 	  1.336250
126005.000000 	  1.534750
126411.000000 	  1.847800
127242.000000 	  1.997000
127625.000000 	  1.897500
128313.000000 	  1.809350
128929.000000 	  1.479150
129767.000000 	  3.294300
130425.000000 	  3.955000
131361.000000 	  3.951700
131737.000000 	  4.004800
132200.000000 	  3.335000
132739.000000 	  1.452550
133093.000000 	  0.063800
133568.000000 	  -0.862800
133979.000000 	  -1.604050
134500.000000 	  -2.820000
135340.000000 	  -4.364000
136400.000000 	  -5.810000
137760.000000 	  -6.289000
138826.000000 	  -6.992300
140262.000000 	  -7.447200
141546.000000 	  -7.113100
143857.000000 	  -6.594500
146095.000000 	  -6.451000
148371.000000 	  -5.884200
150702.000000 	  -5.722100
153081.000000 	  -6.741000
155490.000000 	  -7.341000
158202.000000 	  -7.218100
159620.000000 	  -5.394000
161827.000000 	  -6.533500
163911.000000 	  -5.760550
166120.000000 	  -7.169000
168421.000000 	  -5.195550
169424.000000 	  -5.588200
171024.000000 	  -5.979200
172798.000000 	  -5.420400
173909.000000 	  -5.146300
175115.000000 	  -6.495000
176085.000000 	  -5.986250
177707.000000 	  -4.771950
179649.000000 	  -4.706850
181416.000000 	  -6.108400
183405.000000 	  -6.710000
185069.000000 	  -5.660300
186472.000000 	  -6.075600
187646.000000 	  -5.667500
188880.000000 	  -4.038000
189896.000000 	  -2.893200
191219.000000 	  -4.507350
192228.000000 	  -4.912800
193367.000000 	  -3.355850
194565.000000 	  -3.396750
195873.000000 	  -2.815900
197052.000000 	  -1.920400
198178.000000 	  -0.393200
199222.000000 	  -0.387300
200339.000000 	  0.192950
201166.000000 	  -0.996400
202217.000000 	  -1.840400
203288.000000 	  -2.700800
204493.000000 	  -3.901400
205904.000000 	  -3.012800
207864.000000 	  -3.013600
209926.000000 	  -2.344800
212514.000000 	  -1.872800
214301.000000 	  -0.938650
215447.000000 	  -0.333150
216841.000000 	  -0.790650
218129.000000 	  -0.059300
219206.000000 	  -1.530000
220279.000000 	  -2.138000
221523.000000 	  -2.992750
222853.000000 	  -3.785450
224672.000000 	  -4.756600
225880.000000 	  -6.032000
227244.000000 	  -5.223200
230538.000000 	  -6.120400
232332.000000 	  -5.330400
234098.000000 	  -4.968400
235831.000000 	  -3.782100
237911.000000 	  -1.981200
238811.000000 	  -1.498850
240339.000000 	  -0.918600
241355.000000 	  0.141250
242688.000000 	  2.700000
243634.000000 	  2.745300
244915.000000 	  -0.899250
245661.000000 	  -2.348350
247610.000000 	  -4.746000
249495.000000 	  -5.856500
251780.000000 	  -5.926000
253239.000000 	  -6.082200
255459.000000 	  -5.656650
258130.000000 	  -5.077500
259955.000000 	  -5.607000
261585.000000 	  -5.593500
263597.000000 	  -5.728200
266752.000000 	  -6.286000
269531.000000 	  -7.508450
272636.000000 	  -6.932000
273895.000000 	  -6.309000
276045.000000 	  -6.377750
278484.000000 	  -6.822400
281531.000000 	  -5.535200
284032.000000 	  -4.348600
286374.000000 	  -2.954100
288002.000000 	  -2.455300
290148.000000 	  -1.652400
292351.000000 	  -3.286100
295145.000000 	  -4.721750
296645.000000 	  -4.333000
299243.000000 	  -4.683950
301620.000000 	  -4.908000
303797.000000 	  -3.396300
306463.000000 	  -4.402200
308426.000000 	  -3.668900
310709.000000 	  -3.758750
313309.000000 	  -2.182000
315386.000000 	  -0.834800
317160.000000 	  -2.139000
318540.000000 	  -3.304000
320307.000000 	  -3.919950
322830.000000 	  -3.719000
325402.000000 	  -1.034700
327999.000000 	  -0.564850
330244.000000 	  0.406400
332210.000000 	  0.944000
334633.000000 	  2.689500
335048.000000 	  3.242800
336501.000000 	  4.462200
337617.000000 	  3.260150
